10122.52
10173.92
10168.46
10290.28
10260.20
#N/A
10342.79
10313.36
10289.10
10313.07
10314.76
10318.16
10231.36
10244.49
10284.46
10204.89
10244.93
10109.18
10038.90
10047.24
9988.54
10077.40
10136.24
10080.27
10192.65
10216.54
10177.68
10239.92
10125.40
10055.20
10081.97
10077.18
10002.33
9894.45
9933.38
9956.32
9897.62
9886.93
9865.76
9757.81
9749.99
9888.48
10002.03
10004.54
10027.47
10054.39
10035.73
10137.05
10314.76
10387.54
10391.31
10386.37
10385.48
10469.84
10539.01
10550.24
10487.65
10549.57
10572.55
10456.91
10489.42
10492.60
10520.31
#N/A
10522.23
10475.90
10428.02
10590.22
10585.12
10592.21
10547.06
10440.58
10494.23
10552.82
10543.22
10638.32
10676.45
10691.45
10705.64
10649.92
10661.60
10759.43
10815.89
10827.12
#N/A
10776.13
10854.54
10829.19
10800.30
10783.01
10729.43
10630.78
10597.83
10622.88
10603.96
10621.03
10556.22
10617.78
10505.83
10558.00
#N/A
10628.79
10539.97
10471.47
10392.99
10368.61
10461.56
10498.59
10467.40
10427.20
10489.94
10551.94
10596.79
10593.10
10716.13
10715.76
10724.63
10664.11
10749.61
10796.01
10791.13
10837.32
10834.88
10754.26
10785.22
#N/A
10611.20
10673.79
10748.79
10841.60
10766.23
10830.00
10811.97
10833.03
10940.55
10936.86
10912.62
10805.62
10851.51
10774.36
10804.51
10745.10
10633.07
10626.35
10629.67
10565.39
10470.51
10456.02
10442.87
#N/A
10485.65
10405.70
10540.93
10503.76
10404.30
10421.14
10458.46
10486.02
10546.32
10461.34
10448.56
10507.97
10403.93
10278.75
10087.51
10071.25
10127.41
10012.36
10218.60
10157.71
10242.47
10151.13
10198.80
10070.37
10192.51
10251.70
10256.95
10384.64
10340.38
10345.40
10384.34
10281.11
10300.25
10189.48
10140.12
10252.29
10331.88
10464.45
10493.19
10471.91
10523.56
10503.68
10457.80
10537.60
10542.55
#N/A
10467.48
10549.87
10553.49
10460.97
10467.03
10483.07
10476.86
10503.02
10512.63
10522.56
10547.57
10566.37
10578.65
10623.07
10609.11
10599.67
10587.93
10421.44
10297.84
10290.78
10405.63
10374.48
10274.97
10303.44
#N/A
10371.80
10270.68
10302.29
10449.14
10519.72
10513.89
10557.39
10628.89
10640.83
10574.99
10646.56
10689.15
10627.77
10651.18
10596.48
10579.77
10637.09
10705.55
10640.91
10623.15
10683.74
10697.59
10610.10
10558.03
10536.93
10615.67
10594.41
10685.89
10600.31
10634.38
10513.45
10550.71
10554.93
10559.23
10569.89
10519.58
10434.87
10450.63
10397.29
10463.05
10412.82
10481.60
10459.63
10447.37
#N/A
10589.24
10633.50
10595.93
10678.56
10682.94
10597.44
10544.90
10558.75
10641.94
10557.63
10481.52
10378.03
10422.05
10419.59
10443.63
10456.21
10473.09
10552.78
10568.70
10535.48
10441.11
10317.36
10287.10
10292.31
10238.76
10253.17
10216.91
10216.59
10287.34
10348.10
10285.26
10414.13
10281.10
10215.22
10385.00
10377.87
10344.98
10229.95
10402.77
10440.07
10406.77
10472.73
10522.59
10530.76
10586.23
10539.72
10546.21
10640.10
10686.04
10697.17
10686.44
10674.76
10720.22
10766.33
10820.28
10871.43
10916.09
#N/A
10931.62
10890.72
10888.16
10805.87
10912.57
10877.51
10835.01
10856.86
10810.91
10755.12
10778.58
10767.77
10823.72
10883.51
10881.67
10875.59
10836.53
10805.55
10833.73
10889.44
10883.27
#N/A
10777.77
10796.26
10784.82
10717.50
#N/A
10847.41
10880.15
10882.15
10959.31
11011.90
11011.58
11043.44
10962.36
10959.87
#N/A
10896.32
10854.86
10880.71
10667.39
10688.77
10712.22
10709.74
10809.47
10907.21
10899.92
10864.86
10953.95
10851.98
10793.62
10798.27
10749.76
10858.62
10883.35
10919.05
10892.32
11028.39
11058.97
11120.68
11115.32
#N/A
11069.06
11137.17
11069.22
11061.85
11097.55
10993.41
11053.53
11025.51
11021.59
10958.59
10980.69
11005.74
10972.28
11076.34
11076.02
11151.34
11209.77
11253.24
11279.65
11274.53
11235.47
11317.43
11270.29
11279.97
11250.11
11154.54
11215.70
11150.70
11109.32
11144.94
11203.85
11239.55
11216.50
11120.04
11141.33
11089.63
11129.97
11137.65
#N/A
11073.78
11268.77
11278.77
11342.89
11347.45
11336.32
11283.25
11354.49
11382.51
11367.14
11343.29
11416.45
11400.28
11438.86
11577.74
11584.54
11639.77
11642.65
11500.73
11380.99
11428.77
11419.89
11205.61
11128.29
11144.06
11125.33
11098.35
11117.32
11211.05
11278.61
#N/A
11094.43
11168.31
11260.28
11247.87
11048.72
11002.14
10930.90
10938.82
10891.92
10792.58
10706.14
10816.92
11015.19
11014.55
10942.11
10974.84
11079.46
11019.11
10989.09
11045.28
10924.74
10973.56
11190.80
11150.22
11228.02
#N/A
11151.82
11225.30
11090.67
11103.55
11134.77
11013.18
10846.29
10739.35
10747.36
10799.23
11011.42
10928.10
10868.38
11051.05
11103.71
11102.51
11100.43
11219.70
11185.68
11125.73
11199.93
11242.59
11240.35
11219.38
11173.59
11076.18
11124.37
11088.03
11097.87
11230.26
11327.12
11334.96
11381.47
11345.05
11339.84
11297.90
11304.46
11284.05
11352.01
11369.94
11382.91
11381.15
11464.15
#N/A
11469.28
11406.20
11331.44
11392.11
11396.84
11498.09
11543.32
11527.39
11560.77
11555.00
11540.91
11613.19
11533.23
11508.10
11575.81
11669.39
11689.24
11718.45
11679.07
11670.35
11727.34
11850.61
11866.69
11850.21
11857.81
11867.17
11852.13
11947.70
11960.51
11980.60
11950.02
11992.68
12011.73
12002.37
12116.91
12127.88
12134.68
12163.66
12090.26
12086.50
12080.73
12031.02
12018.54
11986.04
12105.55
12156.77
12176.54
12103.30
12108.43
12131.88
12218.01
12251.71
12305.82
12342.56
12316.54
12321.59
12326.95
#N/A
12280.17
12121.71
12136.45
12226.73
12221.93
12194.13
12283.85
12331.60
12309.25
12278.41
12307.49
12328.48
12315.58
12317.50
12416.76
12445.52
12441.27
12471.32
12463.87
12421.25
12343.22
#N/A
12407.63
12510.57
12501.52
12463.15
#N/A
#N/A
12474.52
12480.69
12398.01
12423.49
12416.60
12442.16
12514.98
12556.08
#N/A
12582.59
12577.15
12567.93
12565.53
12477.16
12533.80
12621.77
12502.56
12487.02
12490.78
12523.31
12621.69
12673.68
12653.49
12661.74
12666.31
12666.87
12637.63
12580.83
12552.55
12654.85
12741.86
12765.01
12767.57
#N/A
12786.64
12738.41
12686.02
12647.48
12632.26
12216.24
12268.63
12234.34
12114.10
12050.41
12207.59
12192.45
12260.70
12276.32
12318.62
12075.96
12133.40
12159.68
12110.41
12226.17
12288.10
12447.52
12461.14
12481.01
12469.07
12397.29
12300.36
12348.75
12354.35
12382.30
12510.30
12530.05
12560.20
#N/A
12569.14
12573.85
12484.62
12552.96
12612.13
12720.46
12773.04
12803.84
12808.63
12961.98
12919.40
12953.94
13089.89
13105.50
13120.94
13062.91
13136.14
13211.88
13241.38
13264.62
13312.97
13309.07
13362.87
13215.13
13326.22
13346.78
13383.84
13487.53
13476.72
13556.53
13542.88
13539.95
13525.65
13441.13
13507.28
#N/A
13521.34
13633.08
13627.64
13668.11
13676.32
13595.46
13465.67
13266.73
13424.39
13424.96
13295.01
13482.35
13553.72
13639.48
13612.98
13635.42
13489.42
13545.84
13360.26
13352.05
13337.66
13427.73
13422.28
13408.62
13535.43
13577.30
#N/A
13565.84
13611.68
13649.97
13501.70
13577.87
13861.73
13907.25
13950.98
13971.55
13918.22
14000.41
13851.08
13943.42
13716.95
13785.07
13473.57
13265.47
13358.31
13211.99
13362.37
13463.33
13181.91
13468.78
13504.30
13657.86
13270.68
13239.54
13236.53
13028.92
12861.47
12845.78
13079.08
13121.35
13090.86
13236.13
13235.88
13378.87
13322.13
13041.85
13289.29
13238.73
13357.74
#N/A
13448.86
13305.47
13363.35
13113.38
13127.85
13308.39
13291.65
13424.88
13442.52
13403.42
13739.39
13815.56
13766.70
13820.19
13759.06
13778.65
13878.15
13912.94
13895.63
14087.55
14047.31
13968.05
13974.31
14066.01
14043.73
14164.53
14078.69
14015.12
14093.08
13984.80
13912.94
13892.54
13888.96
13522.02
13566.97
13676.23
13675.25
13671.92
13806.70
13870.26
13792.47
13930.01
13567.87
13595.10
13543.40
13660.94
13300.02
13266.29
13042.74
12987.55
13307.09
13231.01
13110.05
13176.79
12958.44
13010.14
12799.04
#N/A
12980.88
12743.44
12958.44
13289.45
13311.73
13371.72
13314.57
13248.73
13444.96
13619.89
13625.58
13727.03
13432.77
13473.90
13517.96
13339.85
13167.20
13232.47
13207.27
13245.64
13450.65
13549.33
#N/A
13551.69
13359.61
13365.87
13264.82
#N/A
13043.96
13056.72
12800.18
12827.49
12589.07
12735.31
12853.09
12606.30
12778.15
12501.11
12466.16
12159.21
12099.30
#N/A
11971.19
12270.17
12378.61
12207.17
12383.89
12480.30
12442.83
12650.36
12743.19
12635.16
12265.13
12200.10
12247.00
12182.13
12240.01
12373.41
12552.24
12376.98
12348.21
#N/A
12337.22
12427.26
12284.30
12381.02
12570.22
12684.92
12694.28
12582.18
12266.39
12258.90
12213.80
12254.99
12040.39
11893.69
11740.15
12156.81
12110.24
12145.74
11951.09
11972.25
12392.66
12099.66
12361.32
#N/A
12548.64
12532.60
12422.86
12302.46
12216.40
12262.89
12654.36
12605.83
12626.03
12609.42
12612.43
12576.44
12527.26
12581.98
12325.42
12302.06
12362.47
12619.27
12620.49
12849.36
12825.02
12720.23
12763.22
12848.95
12891.86
12871.75
12831.94
12820.13
13010.00
13058.20
12969.54
13020.83
12814.35
12866.78
12745.88
12876.31
12832.18
12898.38
12992.66
12986.80
13028.16
12828.68
12601.19
12625.62
12479.63
#N/A
12548.35
12594.03
12646.22
12638.32
12503.82
12402.85
12390.48
12604.45
12209.81
12280.32
12289.76
12083.77
12141.58
12307.35
12269.08
12160.30
12029.06
12063.09
11842.69
11842.36
11807.43
11811.83
11453.42
11346.51
11350.01
11382.26
11215.51
11288.54
#N/A
11231.96
11384.21
11147.44
11229.02
11100.54
11055.19
10962.54
11239.28
11446.66
11496.57
11467.34
11602.50
11632.38
11349.28
11370.69
11131.08
11397.56
11583.69
11378.02
11326.32
11284.15
11615.77
11656.07
11431.43
11734.32
11782.35
11642.47
11532.96
11615.93
11659.90
11479.39
11348.55
11417.43
11430.21
11628.06
11386.25
11412.87
11502.51
11715.18
11543.55
#N/A
11516.92
11532.88
11188.23
11220.96
11510.74
11230.73
11268.92
11433.71
11421.99
10917.51
11059.02
10609.66
11019.69
11388.44
11015.69
10854.17
10825.17
11022.06
11143.13
10365.45
10850.66
10831.07
10482.85
10325.38
9955.50
9447.11
9258.10
8579.19
8451.19
9387.61
9310.99
8577.91
8979.26
8852.22
9265.43
9033.66
8519.21
8691.25
8378.95
8175.77
9065.12
8990.96
9180.69
9325.01
9319.83
9625.28
9139.27
8695.79
8943.81
8870.54
8693.96
8282.66
8835.25
8497.31
8273.58
8424.75
7997.28
7552.29
8046.42
8443.39
8479.47
8726.61
#N/A
8829.04
8149.09
8419.09
8591.69
8376.24
8635.42
8934.18
8691.33
8761.42
8565.09
8629.68
8564.53
8924.14
8824.34
8604.99
8579.11
8519.77
8419.49
8468.48
#N/A
8515.55
8483.93
8668.39
8776.39
#N/A
9034.69
8952.89
9015.10
8769.70
8742.46
8599.18
8473.97
8448.56
8200.14
8212.49
8281.22
#N/A
7949.09
8228.10
8122.80
8077.56
8116.03
8174.73
8375.45
8149.01
8000.86
7936.83
8078.36
7956.66
8063.07
8280.59
8270.87
7888.88
7939.53
7932.76
7850.41
#N/A
7552.60
7555.63
7465.95
7365.67
7114.78
7350.94
7270.89
7182.08
7062.93
6763.29
6726.02
6875.84
6594.44
6626.94
6547.05
6926.49
6930.40
7170.06
7223.98
7216.97
7395.70
7486.58
7400.80
7278.38
7775.86
7659.97
7749.81
7924.56
7776.18
7522.02
7608.92
7761.60
7978.08
8017.59
7975.85
7789.56
7837.11
8083.38
#N/A
8057.81
7920.18
8029.62
8125.43
8131.33
7841.73
7969.56
7886.57
7957.06
8076.29
8025.00
8016.95
8185.73
8168.12
8212.41
8426.74
8410.65
8512.28
8409.85
8574.65
8418.77
8469.11
8284.89
8331.32
8268.64
8504.08
8474.85
8422.04
8292.13
8277.32
#N/A
8473.49
8300.02
8403.80
8500.33
8721.44
8740.87
8675.28
8750.24
8763.13
8764.49
8763.06
8739.02
8770.92
8799.26
8612.13
8504.67
8497.18
8555.60
8539.73
8339.01
8322.91
8299.86
8472.40
8438.39
8529.38
8447.00
8504.06
8280.74
#N/A
8324.87
8163.60
8178.41
8183.17
8146.52
8331.68
8359.49
8616.21
8711.82
8743.94
8848.15
8915.94
8881.26
9069.29
9093.24
9108.51
9096.72
9070.72
9154.46
9171.61
9286.56
9320.19
9280.97
9256.26
9370.07
9337.95
9241.45
9361.61
9398.19
9321.40
9135.34
9217.94
9279.16
9350.05
9505.96
9509.28
9539.29
9543.52
9580.63
9544.20
9496.28
9310.60
9280.67
9344.61
9441.27
#N/A
9497.34
9547.22
9627.48
9605.41
9626.80
9683.41
9791.71
9783.92
9820.20
9778.86
9829.87
9748.55
9707.44
9665.19
9789.36
9742.20
9712.28
9509.28
9487.67
9599.75
9731.25
9725.58
9786.87
9864.94
9885.80
9871.06
10015.86
10062.94
9995.91
10092.19
10041.48
9949.36
10081.31
9972.18
9867.96
9882.17
9762.69
9962.58
9712.73
9789.44
9771.91
9802.14
10005.96
10023.42
10226.94
10246.97
10291.26
10197.47
10270.47
10406.96
10437.42
10426.31
10332.44
10318.16
10450.95
10433.71
10464.40
#N/A
10309.92
10344.84
10471.58
10452.68
10366.15
10388.90
10390.11
10285.97
10337.05
10405.83
10471.50
10501.05
10452.00
10441.12
10308.26
10328.89
10414.14
10464.93
10466.44
10520.10
#N/A
10547.08
10545.41
10548.51
10428.05
#N/A
10583.96
10572.02
10573.68
10606.86
10618.19
10663.99
10627.26
10680.77
10710.55
10609.65
#N/A
10725.43
10603.15
10389.88
10172.98
10196.86
10194.29
10236.16
10120.46
10067.33
10185.53
10296.85
10270.55
10002.18
10012.23
9908.39
10058.64
10038.38
10144.19
10099.14
#N/A
10268.81
10309.24
10392.90
10402.35
10383.38
10282.41
10374.16
10321.03
10325.26
10403.79
10405.98
10396.76
10444.14
10566.20
10552.52
10564.38
10567.33
10611.84
10624.69
10642.15
10685.98
10733.67
10779.17
10741.98
10785.89
10888.83
10836.15
10841.21
10850.36
10895.86
10907.42
10856.63
10927.07
#N/A
10973.55
10969.99
10897.52
10927.07
10997.35
11005.97
11019.42
11123.11
11144.57
11018.66
11092.05
11117.06
11124.92
11134.29
11204.28
11205.03
10991.99
11045.27
11167.32
11008.61
11151.83
10926.77
10868.12
10520.32
10380.43
10785.14
10748.26
10896.91
10782.95
10620.16
10625.83
10510.95
10444.37
10068.01
10193.39
10066.57
10043.75
9974.45
10258.99
10136.63
#N/A
10024.02
10249.54
10255.28
9931.97
9816.49
9939.98
9899.25
10172.53
10211.07
10190.89
10404.77
10409.46
10434.17
10450.64
10442.41
10293.52
10298.44
10152.80
10143.81
10138.52
9870.30
9774.02
9732.53
9686.48
#N/A
9743.62
10018.28
10138.99
10198.03
10216.27
10363.02
10366.72
10359.31
10097.90
10154.43
10229.96
10120.53
10322.30
10424.62
10525.43
10537.69
10497.88
10467.16
10465.94
10674.38
10636.38
10680.43
10674.98
10653.56
10698.75
10644.25
10378.83
10319.95
10303.15
10302.01
10405.85
10415.54
10271.21
10213.62
10174.41
10040.45
10060.06
9985.81
10150.65
10009.73
10014.72
10269.47
10320.10
10447.93
#N/A
10340.69
10387.01
10415.24
10462.77
10544.13
10526.49
10572.73
10594.83
10607.85
10753.62
10761.03
10739.31
10662.42
10860.26
10812.04
10858.14
10835.28
10788.05
10829.68
10751.27
10944.72
10967.65
10948.58
11006.48
11010.34
11020.40
11096.08
11094.57
11062.78
11143.69
10978.62
11107.97
11146.57
11132.56
11164.05
11169.46
11126.28
11113.95
11118.49
11124.62
11188.72
11215.13
11434.84
11444.08
11406.84
11346.75
11357.04
11283.10
11192.58
11201.97
11023.50
11007.88
11181.23
11203.55
11178.58
11036.37
11187.28
#N/A
11092.00
11052.49
11006.02
11255.78
11362.41
11382.09
11362.19
11359.16
11372.48
11370.06
11410.32
11428.56
11476.54
11457.47
11499.25
11491.91
11478.13
11533.16
11559.49
11573.49
#N/A
11555.03
11575.54
11585.38
11569.71
11577.51
11670.75
11691.18
11722.89
11697.31
11674.76
11637.45
11671.88
11755.44
11731.90
11787.38
#N/A
11837.93
11825.29
11822.80
11871.84
11980.52
11977.19
11985.44
11989.83
11823.70
11891.93
12040.16
12041.97
12062.26
12092.15
12161.63
12233.15
12239.89
12229.29
12273.26
12268.19
12226.64
12288.17
12318.14
12391.25
#N/A
12212.79
12105.78
12068.50
12130.45
12226.34
12058.02
12066.80
12258.20
12169.88
12090.03
12214.38
12213.09
11984.61
12044.40
11993.16
11855.42
11613.30
11774.59
11858.52
12036.53
12018.63
12086.02
12170.56
12220.59
12197.88
12279.01
12350.61
12319.73
12376.72
12400.03
12393.90
12426.75
12409.49
12380.05
12381.11
12263.58
12270.99
12285.15
12341.83
12201.59
12266.75
12453.54
12505.99
#N/A
12479.88
12595.37
12690.96
12763.31
12810.54
12807.36
12807.51
12723.58
12584.17
12638.74
12684.68
12760.36
12630.03
12695.92
12595.75
12548.37
12479.58
12560.18
12605.32
12512.04
12381.26
12356.21
12394.66
12402.76
12441.58
#N/A
12569.79
12290.14
12248.55
12151.26
12089.96
12070.81
12048.94
12124.36
11951.91
11952.97
12076.11
11897.27
11961.52
12004.36
12080.38
12190.01
12109.67
12050.00
11934.58
12043.56
12188.69
12261.42
12414.34
12582.77
#N/A
12569.87
12626.02
12719.49
12657.20
12505.76
12446.88
12491.61
12437.12
12479.73
12385.16
12587.42
12571.91
12724.41
12681.16
12592.80
12501.30
12302.55
12240.11
12143.24
12132.49
11866.62
11896.44
11383.68
11444.61
10809.85
11239.77
10719.94
11143.31
11269.02
11482.90
11405.93
11410.21
10990.58
10817.65
10854.65
11176.76
11320.71
11149.82
11284.54
11539.25
11559.95
11613.53
11493.57
11240.26
#N/A
11139.30
11414.86
11295.81
10992.13
11061.12
11105.85
11246.73
11433.18
11509.09
11401.01
11408.66
11124.84
10733.83
10771.48
11043.86
11190.69
11010.90
11153.98
10913.38
10655.30
10808.71
10939.95
11123.33
11103.12
11433.18
11416.30
11518.85
11478.13
11644.49
11397.00
11577.05
11504.62
11541.78
11808.79
11913.62
11706.62
11869.04
12208.55
12231.11
11955.01
11657.96
11836.04
12044.47
11983.24
12068.39
12170.18
11780.94
11893.79
12153.68
12078.98
12096.16
11905.59
11770.73
11796.16
11547.31
11493.72
11257.55
#N/A
11231.78
11523.01
11555.63
12045.68
12020.03
12019.42
12097.83
12150.13
12196.37
11997.70
12184.26
12021.39
11954.94
11823.48
11868.81
11866.39
11766.26
12103.58
12107.74
12169.65
12294.00
#N/A
12291.35
12151.41
12287.04
12217.56
#N/A
12397.38
12418.42
12415.70
12359.92
12392.69
12462.47
12449.45
12471.02
12422.06
#N/A
12482.07
12578.95
12623.98
12720.48
12708.82
12675.75
12756.96
12734.63
12660.46
12653.72
12632.91
12716.46
12705.41
12862.23
12845.13
12878.20
12883.95
12890.46
12801.23
12874.04
12878.28
12780.95
12904.08
12949.87
#N/A
12965.69
12938.67
12984.69
12982.95
12981.51
13005.12
12952.07
12980.30
12977.57
12962.81
12759.15
12837.33
12907.94
12922.02
12959.71
13177.68
13194.10
13252.76
13232.62
13239.13
13170.19
13124.62
13046.14
13080.73
13241.63
13197.73
13126.21
13145.82
13212.04
13264.49
13199.55
13074.75
13060.14
#N/A
12929.59
12715.93
12805.39
12986.58
12849.59
12921.41
13115.54
13032.75
12964.10
13029.26
12927.17
13001.56
13090.72
13204.62
13228.31
13213.63
13279.32
13268.57
13206.59
13038.27
13008.53
12932.09
12835.06
12855.04
12820.60
12695.35
12632.00
12598.55
12442.49
12369.38
12504.48
12502.81
12496.15
12529.75
12454.83
#N/A
12580.69
12419.86
12393.45
12118.57
12101.46
12127.95
12414.79
12460.96
12554.20
12411.23
12573.80
12496.38
12651.91
12767.17
12741.82
12837.33
12824.39
12573.57
12640.78
12502.66
12534.67
12627.01
12602.26
12880.09
12871.39
12943.82
#N/A
12896.67
12772.47
12736.29
12653.12
12604.53
12573.27
12777.09
12727.21
12805.54
12908.70
12943.36
12822.57
12721.46
12617.32
12676.05
12887.93
13075.66
13073.01
13008.68
12971.06
12878.88
13096.17
13117.51
13168.60
13175.64
13165.19
13207.95
13169.43
13172.14
13164.78
13250.11
13275.20
13271.64
13203.58
13172.76
13057.46
13157.97
13124.67
13102.99
13107.48
13000.71
13090.84
#N/A
13035.94
13047.48
13292.00
13306.64
13254.29
13323.36
13333.35
13539.86
13593.37
13553.10
13564.64
13577.96
13596.93
13579.47
13558.92
13457.55
13413.51
13485.97
13437.13
13515.11
13482.36
13494.61
13575.36
13610.15
13583.65
13473.53
13344.97
13326.39
13328.85
13424.23
13551.78
13557.00
13548.94
13343.51
13345.89
13102.53
13077.34
13103.68
13107.21
#N/A
#N/A
13096.46
13232.62
13093.16
13112.44
13245.68
12932.73
12811.32
12815.39
12815.08
12756.18
12570.95
12542.38
12588.31
12795.96
12788.51
12836.89
#N/A
13009.68
12967.37
12878.13
12985.11
13021.82
13025.58
12965.60
12951.78
13034.49
13074.04
13155.13
13169.88
13248.44
13245.45
13170.72
13135.01
13235.39
13350.96
13251.97
13311.72
13190.84
13139.08
#N/A
13114.59
13096.31
12938.11
13104.14
#N/A
13412.55
13391.36
13435.21
13384.29
13328.85
13390.51
13471.22
13488.43
13507.32
13534.89
13511.23
13596.02
13649.70
#N/A
13712.21
13779.33
13825.33
13895.98
13881.93
13954.42
13910.42
13860.58
14009.79
13880.08
13979.30
13986.52
13944.05
13992.97
13971.24
14018.70
13982.91
13973.39
13981.76
#N/A
14035.67
13927.54
13880.62
14000.57
13784.17
13900.13
14075.37
14054.49
14089.66
14127.82
14253.77
14296.24
14329.49
14397.07
14447.29
14450.06
14455.28
14539.14
14514.11
14452.06
14455.82
14511.73
14421.49
14512.03
14447.75
14559.65
14526.16
14578.54
#N/A
14572.85
14662.01
14550.35
14606.11
14565.25
14613.48
14673.46
14802.24
14865.14
14865.06
14599.20
14756.78
14618.59
14537.14
14547.51
14567.17
14719.46
14676.30
14700.80
14712.55
14818.75
14839.80
14700.95
14831.58
14973.96
14968.89
15056.20
15105.12
15082.62
15118.49
15091.68
15215.25
15275.69
15233.22
15354.40
15335.28
15387.58
15307.17
15294.50
15303.10
#N/A
15409.39
15302.80
15324.53
15115.57
15254.03
15177.54
14960.59
15040.62
15248.12
15238.59
15122.02
14995.23
15176.08
15070.18
15179.85
15318.23
15112.19
14758.32
14799.40
14659.56
14760.31
14910.14
15024.49
14909.60
14974.96
14932.41
14988.55
#N/A
15135.84
15224.69
15300.34
15291.66
15460.92
15464.30
15484.26
15451.85
15470.52
15548.54
15543.74
15545.55
15567.74
15542.24
15555.61
15558.83
15521.97
15520.59
15499.54
15628.02
15658.36
15612.13
15518.74
15470.67
15498.32
15425.51
15419.68
15451.01
15337.66
15112.19
15081.47
15010.74
15002.99
14897.55
14963.74
15010.51
14946.46
14776.13
14824.51
14840.95
14810.31
#N/A
14833.96
14930.87
14937.48
14922.50
15063.12
15191.06
15326.60
15300.64
15376.06
15494.78
15529.73
15676.94
15636.55
15451.09
15401.38
15334.59
15273.26
15328.30
15258.24
15129.67
15191.70
15133.14
14996.48
15072.58
14936.24
14776.53
14802.98
15126.07
15237.11
15301.26
15168.01
15373.83
15371.65
15399.65
15392.20
15467.66
15413.33
15509.21
15570.28
15568.93
15680.35
15618.76
15545.75
15615.55
15639.12
15618.22
15746.88
15593.98
15761.78
15783.10
15750.67
15821.63
15876.22
15961.70
15976.02
15967.03
15900.82
16009.99
16064.77
16072.54
16072.80
16097.33
#N/A
16086.41
16008.77
15914.62
15889.77
15821.51
16020.20
16025.53
15973.13
15843.53
15739.43
15755.36
15884.57
15875.26
16167.97
16179.08
16221.14
16294.61
16357.55
#N/A
16479.88
16478.41
16504.29
16576.66
#N/A
16441.35
16469.99
16425.10
16530.94
16462.74
16444.76
16437.05
16257.94
16373.86
16481.94
16417.01
16458.56
#N/A
16414.44
16373.34
16197.35
15879.11
15837.88
15928.56
15738.79
15848.61
15698.85
15372.80
15445.24
15440.23
15628.53
15794.08
15801.79
15994.77
15963.94
16027.59
16154.39
#N/A
16130.40
16040.56
16133.23
16103.30
16207.14
16179.66
16198.41
16272.65
16321.71
16168.03
16395.88
16360.18
16421.89
16452.72
16418.68
16351.25
16340.08
16108.89
16065.67
16247.22
16336.19
16222.17
16331.05
16302.77
16276.69
16367.88
16268.99
16264.23
16323.06
16457.66
16532.61
16573.00
16572.55
16412.71
16245.87
16256.14
16437.18
16170.22
16026.75
16173.24
16262.56
16424.85
16408.54
#N/A
16449.25
16514.37
16501.65
16501.65
16361.46
16448.74
16535.37
16580.84
16558.87
16512.89
16530.55
16401.02
16518.54
16550.97
16583.34
16695.47
16715.44
16613.97
16446.81
16491.31
16511.86
16374.31
16533.06
16543.08
16606.27
#N/A
16675.50
16633.18
16698.74
16717.17
16743.63
16722.34
16737.53
16836.11
16924.28
16943.10
16945.92
16843.88
16734.19
16775.74
16781.01
16808.49
16906.62
16921.46
16947.08
16937.26
16818.13
16867.51
16846.13
16851.84
16826.60
16956.07
16976.24
17068.26
#N/A
17024.21
16906.62
16985.61
16915.07
16943.81
17055.42
17060.68
17138.20
16976.81
17100.18
17051.73
17113.54
17086.63
17083.80
16960.57
16982.59
16912.11
16880.36
16563.30
16493.37
16569.28
16429.47
16443.34
16368.27
16553.93
16569.98
16560.54
16651.80
16713.58
16662.91
16838.74
16919.59
16979.13
17039.49
17001.22
17076.87
17106.70
17122.01
17079.57
